IRDFF v 1.05, 9 October 2014
Ni-58(n,p)                              
 9.999999-6 0.0000E+00 0.0000E+00
 0.02530000 0.0000E+00 0.0000E+00
 400000.000 0.0000E+00 0.0000E+00
 500000.000 7.8338E-07 5.2943E-08
 550000.000 1.2351E-06 8.3471E-08
 600000.000 8.4002E-06 5.6771E-07
 700000.000 4.4031E-05 2.9758E-06
 800000.000 1.7716E-04 1.1973E-05
 900000.000 4.1925E-04 2.8334E-05
 1000000.00 7.9865E-04 5.3975E-05
 1100000.00 2.2979E-03 1.5530E-04
 1200000.00 4.3225E-03 2.9213E-04
 1300000.00 5.8089E-03 3.9258E-04
 1400000.00 8.0634E-03 5.4495E-04
 1500000.00 1.1140E-02 7.5288E-04
 1600000.00 1.5138E-02 4.7959E-04
 1700000.00 2.0177E-02 6.3923E-04
 1800000.00 2.6374E-02 8.3556E-04
 1900000.00 3.3829E-02 1.0717E-03
 2000000.00 4.2613E-02 1.3500E-03
 2100000.00 5.2760E-02 1.1422E-03
 2200000.00 6.4261E-02 1.3912E-03
 2300000.00 7.7059E-02 1.6683E-03
 2400000.00 9.1055E-02 1.9713E-03
 2500000.00 1.0611E-01 2.2973E-03
 2600000.00 1.2207E-01 2.6459E-03
 2700000.00 1.3874E-01 3.0074E-03
 2800000.00 1.5596E-01 3.3805E-03
 3100000.00 2.0916E-01 4.7563E-03
 3400000.00 2.6206E-01 5.9592E-03
 3600000.00 2.9612E-01 7.1118E-03
 3800000.00 3.2887E-01 7.8984E-03
 4000000.00 3.6022E-01 8.6513E-03
 4300000.00 4.0454E-01 9.9660E-03
 4600000.00 4.4555E-01 1.0742E-02
 4900000.00 4.8311E-01 1.1648E-02
 5200000.00 5.1696E-01 1.2135E-02
 5500000.00 5.4685E-01 1.2836E-02
 5800000.00 5.7256E-01 1.3327E-02
 6100000.00 5.9399E-01 1.3747E-02
 6400000.00 6.1118E-01 1.4145E-02
 6700000.00 6.2438E-01 1.4225E-02
 7000000.00 6.3395E-01 1.4443E-02
 7400000.00 6.4189E-01 1.4388E-02
 7800000.00 6.4550E-01 1.4391E-02
 8100000.00 6.4612E-01 1.4398E-02
 8800000.00 6.4334E-01 1.4179E-02
 9800000.00 6.3424E-01 1.3370E-02
 10400000.0 6.2552E-01 1.3318E-02
 10800000.0 6.1671E-01 1.3593E-02
 11200000.0 6.0399E-01 1.3608E-02
 11500000.0 5.9103E-01 1.3316E-02
 11800000.0 5.7458E-01 1.2658E-02
 12100000.0 5.5435E-01 1.1454E-02
 12400000.0 5.3033E-01 1.0957E-02
 12700000.0 5.0286E-01 9.7464E-03
 13000000.0 4.7259E-01 9.1597E-03
 13600000.0 4.0741E-01 7.9137E-03
 14100000.0 3.5314E-01 7.2005E-03
 14400000.0 3.2236E-01 6.5731E-03
 14700000.0 2.9362E-01 6.5044E-03
 15000000.0 2.6722E-01 5.9196E-03
 15200000.0 2.5099E-01 6.3034E-03
 15400000.0 2.3586E-01 5.9234E-03
 15600000.0 2.2180E-01 6.5255E-03
 15800000.0 2.0879E-01 6.1426E-03
 16000000.0 1.9677E-01 5.7889E-03
 16200000.0 1.8567E-01 6.5203E-03
 16400000.0 1.7546E-01 6.1615E-03
 16600000.0 1.6605E-01 7.0320E-03
 16800000.0 1.5739E-01 6.6653E-03
 17000000.0 1.4942E-01 6.3278E-03
 17200000.0 1.4208E-01 7.2853E-03
 17500000.0 1.3214E-01 6.7756E-03
 17800000.0 1.2334E-01 7.6357E-03
 18100000.0 1.1552E-01 8.5565E-03
 18400000.0 1.0855E-01 8.0406E-03
 18700000.0 1.0233E-01 8.9483E-03
 19000000.0 9.6754E-02 8.4608E-03
 19300000.0 9.1742E-02 9.9625E-03
 19600000.0 8.7219E-02 9.4714E-03
 19900000.0 8.3125E-02 9.0268E-03
 20000000.0 8.1847E-02 8.8880E-03
 20000100.0 8.1847E-02 1.5377E-02
 21000000.0 7.4617E-02 1.4019E-02
 22000000.0 6.6590E-02 1.2511E-02
 23000000.0 6.2391E-02 1.1722E-02
 24016130.0 5.9070E-02 1.0526E-02
 25000000.0 5.6193E-02 1.0013E-02
 26000000.0 5.4709E-02 9.7486E-03
 27018140.0 5.1855E-02 9.2401E-03
 28037630.0 4.9156E-02 8.0977E-03
 29000000.0 4.6729E-02 7.6979E-03
 30020160.0 4.4752E-02 7.3722E-03
 32000000.0 4.0479E-02 6.6683E-03
 34022848.0 3.6847E-02 5.6164E-03
 36024192.0 3.3445E-02 5.0979E-03
 38000000.0 3.0226E-02 4.6072E-03
 40000000.0 2.7231E-02 4.1507E-03
 42084700.0 2.5221E-02 4.0963E-03
 44000000.0 2.3330E-02 3.7892E-03
 46000000.0 2.0637E-02 3.3518E-03
 48000000.0 1.9022E-02 3.0895E-03
 50000000.0 1.7278E-02 2.8062E-03
 52000000.0 1.5960E-02 2.6436E-03
 54000000.0 1.4296E-02 2.3679E-03
 56000000.0 1.3590E-02 2.2510E-03
 58000000.0 1.1733E-02 1.9434E-03
 59999120.0 1.0739E-02 1.7788E-03
 59999232.0 1.0735E-02 1.7781E-03
 59999288.0 1.0729E-02 1.7771E-03
 59999328.0 1.0721E-02 1.7758E-03
 59999368.0 1.0708E-02 1.7736E-03
 59999400.0 1.0694E-02 1.7713E-03
 59999420.0 1.0674E-02 1.7680E-03
 59999448.0 1.0647E-02 1.7635E-03
 59999472.0 1.0624E-02 1.7597E-03
 59999488.0 1.0596E-02 1.7551E-03
 59999512.0 1.0562E-02 1.7495E-03
 59999528.0 1.0522E-02 1.7428E-03
 59999552.0 1.0473E-02 1.7347E-03
 59999568.0 1.0432E-02 1.7279E-03
 59999580.0 1.0385E-02 1.7201E-03
 59999600.0 1.0333E-02 1.7115E-03
 59999600.0 1.0274E-02 1.7018E-03
 59999632.0 1.0209E-02 1.6910E-03
 59999640.0 1.0136E-02 1.6789E-03
 59999648.0 1.0056E-02 1.6656E-03
 59999672.0 9.9684E-03 1.6511E-03
 59999680.0 9.8717E-03 1.6351E-03
 59999688.0 9.8025E-03 1.6237E-03
 59999700.0 9.7294E-03 1.6115E-03
 59999712.0 9.6513E-03 1.5986E-03
 59999728.0 9.5697E-03 1.5851E-03
 59999728.0 9.4839E-03 1.5709E-03
 59999752.0 9.3937E-03 1.5559E-03
 59999752.0 9.2990E-03 1.5403E-03
 59999768.0 9.1999E-03 1.5238E-03
 59999780.0 9.0962E-03 1.5067E-03
 59999792.0 8.9881E-03 1.4888E-03
 59999792.0 8.8742E-03 1.4699E-03
 59999800.0 8.7570E-03 1.4505E-03
 59999800.0 8.6353E-03 1.4303E-03
 59999820.0 8.5091E-03 1.4094E-03
 59999820.0 8.3786E-03 1.3878E-03
 59999840.0 8.2438E-03 1.3655E-03
 59999848.0 8.1049E-03 1.3425E-03
 59999860.0 7.9618E-03 1.3188E-03
 59999872.0 7.8134E-03 1.2942E-03
 59999880.0 7.6626E-03 1.2692E-03
 59999888.0 7.5083E-03 1.2436E-03
 59999900.0 7.3506E-03 1.2175E-03
 59999900.0 7.1897E-03 1.1909E-03
 59999920.0 6.9437E-03 1.1501E-03
 59999940.0 6.6901E-03 1.1081E-03
 59999952.0 6.4315E-03 1.0653E-03
 59999960.0 6.1687E-03 1.0218E-03
 59999980.0 5.9047E-03 9.7803E-04
 60000000.0 5.3696E-03 8.8940E-04
